Energy (keV),Counts
15,0
16.68,1
18.37,5
20.05,22
21.73,71
23.42,130
25.1,169
26.79,199
28.47,294
30.15,403
31.84,518
33.52,665
35.21,796
36.89,888
38.58,995
40.26,1079
41.95,1112
43.64,1083
45.32,987
47.01,815
48.7,697
50.39,627
52.08,593
53.77,615
55.46,694
57.15,709
58.84,860
60.53,997
62.23,1137
63.92,1265
65.62,1479
67.31,1807
69.01,2141
70.71,2493
72.41,2956
74.11,3214
75.81,3367
77.51,3484
79.21,3356
80.92,3328
82.62,3027
84.33,2807
86.04,2605
87.75,2461
89.46,2378
91.17,2459
92.89,2630
94.6,2740
96.32,2890
98.03,3263
99.75,3700
101.48,4100
103.2,4517
104.92,4899
106.65,5034
108.38,5038
110.1,4873
111.84,4765
113.57,4228
115.3,3595
117.04,3095
118.78,2586
120.52,2291
122.26,2018
124,1796
125.75,1654
127.5,1512
129.25,1491
131,1323
132.76,1348
134.51,1249
136.27,1202
138.03,1130
139.8,1117
141.56,1051
143.33,1007
145.1,931
146.87,923
148.65,919
150.43,876
152.21,862
153.99,875
155.78,905
157.56,838
159.35,868
161.15,814
162.94,750
164.74,741
166.54,764
168.35,704
170.16,690
171.97,681
173.78,721
175.6,651
177.41,652
179.24,607
181.06,606
182.89,626
184.72,665
186.56,648
188.39,639
190.23,691
192.08,675
193.92,660
195.78,725
197.63,722
199.49,706
201.35,654
203.21,647
205.08,602
206.95,562
208.82,547
210.7,545
212.58,512
214.47,469
216.36,454
218.25,424
220.15,363
222.05,322
223.95,295
225.86,290
227.77,289
229.69,275
231.61,268
233.53,256
235.46,243
237.39,275
239.32,243
241.26,240
243.21,224
245.16,214
247.11,216
249.06,193
251.02,221
252.99,232
254.96,208
256.93,181
258.91,193
260.89,189
262.88,185
264.87,178
266.87,162
268.87,156
270.87,160
272.88,151
274.9,146
276.91,140
278.94,134
280.97,138
283,150
285.04,137
287.08,123
289.13,126
291.18,118
293.24,118
295.3,139
297.37,121
299.44,101
301.52,107
303.6,103
305.69,110
307.78,93
309.88,93
311.99,100
314.1,117
316.21,97
318.33,90
320.45,88
322.58,90
324.72,80
326.86,74
329.01,75
331.16,75
333.32,82
335.48,81
337.65,74
339.83,72
342.01,64
344.19,62
346.39,67
348.58,56
350.79,59
353,68
355.21,81
357.43,79
359.66,76
361.9,74
364.13,60
366.38,63
368.63,74
370.89,69
373.15,62
375.42,64
377.7,54
379.98,69
382.27,61
384.57,60
386.87,57
389.18,50
391.49,42
393.81,35
396.14,41
398.47,54
400.82,51
403.16,44
405.52,42
407.88,51
410.24,44
412.62,41
415,43
417.39,39
419.78,42
422.18,45
424.59,43
427,38
429.43,38
431.86,40
434.29,39
436.73,42
439.19,30
441.64,25
444.11,36
446.58,39
449.06,41
451.54,28
454.04,34
456.54,37
459.05,27
461.56,35
464.08,34
466.61,42
469.15,48
471.7,40
474.25,29
476.81,26
479.38,30
481.96,30
484.54,36
487.13,42
489.73,32
492.34,29
494.95,22
497.57,31
500.2,26
502.84,21
505.49,32
508.14,38
510.8,37
513.47,38
516.15,27
518.84,23
521.53,32
524.24,32
526.95,22
529.67,25
532.39,31
535.13,28
537.87,30
540.63,33
543.39,26
546.16,30
548.94,33
551.72,29
554.52,27
557.32,31
560.13,32
562.95,30
565.78,26
568.62,24
571.47,25
574.32,25
577.19,23
580.06,18
582.94,26
585.84,26
588.74,22
591.64,20
594.56,25
597.49,25
600.43,27
603.37,24
606.33,22
609.29,22
612.26,38
615.24,32
618.24,22
621.24,21
624.25,23
627.27,27
630.29,27
633.33,25
636.38,27
639.44,24
642.5,21
645.58,23
648.67,23
651.76,16
654.87,22
657.98,24
661.11,23
664.24,17
667.38,13
670.54,11
673.7,13
676.88,20
680.06,17
683.25,18
686.46,18
689.67,22
692.89,22
696.13,19
699.37,21
702.63,19
705.89,27
709.16,18
712.45,31
715.74,14
719.05,15
722.37,20
725.69,28
729.03,14
732.38,21
735.73,22
739.1,14
742.48,19
745.87,22
749.27,21
752.68,19
756.1,18
759.53,24
762.97,29
766.43,23
769.89,24
773.37,27
776.85,23
780.35,27
783.86,23
787.38,22
790.91,22
794.45,23
798,20
801.56,19
805.14,13
808.72,16
812.32,15
815.93,23
819.55,12
823.18,9
826.82,12
830.47,14
834.14,7
837.81,11
841.5,11
845.2,12
848.91,8
852.63,7
856.37,14
860.11,17
863.87,14
867.64,9
871.42,10
875.21,10
879.02,11
882.83,12
886.66,15
890.5,15
894.35,14
898.21,15
902.09,17
905.98,6
909.88,11
913.79,11
917.71,12
921.65,11
925.6,11
929.56,12
933.53,14
937.52,22
941.52,10
945.53,16
949.55,11
953.58,9
957.63,10
961.69,14
965.76,13
969.85,17
973.95,16
978.06,15
982.18,12
986.31,13
990.46,13
994.62,15
998.8,17
1002.98,14
1007.18,9
1011.4,12
1015.62,13
1019.86,13
1024.11,11
1028.38,13
1032.65,12
1036.94,13
1041.25,13
1045.56,18
1049.89,13
1054.24,8
1058.59,12
1062.96,7
1067.35,6
1071.74,8
1076.15,9
1080.58,7
1085.01,11
1089.46,8
1093.93,7
1098.4,10
1102.9,7
1107.4,7
1111.92,5
1116.45,6
1121,7
1125.56,6
1130.13,5
1134.72,6
1139.32,6
1143.93,7
1148.56,10
1153.2,8
1157.86,3
1162.53,7
1167.21,11
1171.91,11
1176.63,8
1181.35,6
1186.09,7
1190.85,5
1195.62,7
1200.4,5
1205.2,5
1210.01,12
1214.84,6
1219.68,8
1224.54,4
1229.41,9
1234.29,6
1239.19,9
1244.11,4
1249.04,8
1253.98,4
1258.94,9
1263.91,7
1268.9,3
1273.9,5
1278.92,4
1283.95,3
1289,4
1294.06,5
1299.13,4
1304.23,3
1309.33,2
1314.45,4
1319.59,3
1324.74,5
1329.91,6
1335.09,5
1340.29,4
1345.5,4
1350.73,4
1355.97,4
1361.23,2
1366.5,7
1371.79,5
1377.1,5
1382.42,8
1387.75,7
1393.1,8
1398.47,4
1403.85,5
1409.25,6
1414.67,6
1420.1,7
1425.54,7
1431,4
1436.48,4
1441.97,7
1447.48,7
1453,9
1458.54,7
1464.1,3
1469.67,4
1475.26,6
1480.86,7
1486.48,6
1492.12,9
1497.77,5
1503.44,4
1509.13,8
1514.83,4
1520.55,5
1526.28,4
1532.03,7
1537.8,5
1543.58,7
1549.38,4
1555.2,7
1561.03,6
1566.88,7
1572.74,2
1578.63,6
1584.53,5
1590.44,4
1596.37,4
1602.32,5
1608.29,2
1614.27,2
1620.27,5
1626.29,5
1632.32,3
1638.37,4
1644.44,4
1650.52,3
1656.63,5
1662.74,3
1668.88,2
1675.03,3
1681.2,4
1687.39,3
1693.6,3
1699.82,4
1706.06,5
1712.31,2
1718.59,2
1724.88,4
1731.19,5
1737.51,4
1743.86,4
1750.22,3
1756.6,5
1762.99,4
1769.41,4
1775.84,3
1782.29,4
1788.76,1
1795.24,1
1801.74,3
1808.27,4
1814.8,3
1821.36,3
1827.94,3
1834.53,2
1841.14,2
1847.77,2
1854.41,2
1861.08,2
1867.76,4
1874.46,3
1881.18,3
1887.92,3
1894.67,3
1901.45,3
1908.24,2
1915.05,6
1921.88,5
1928.73,4
1935.59,5
1942.48,4
1949.38,7
1956.3,2
1963.24,2
1970.2,3
1977.18,3
1984.18,2
1991.19,3
1998.23,3
2005.28,5
2012.35,3
2019.44,5
2026.55,4
2033.68,4
2040.82,5
2047.99,2
2055.18,1
2062.38,0
2069.6,2
2076.85,4
2084.11,3
2091.39,4
2098.69,3
2106.01,3
2113.35,3
2120.7,6
2128.08,6
2135.48,4
2142.89,4
2150.33,5
2157.78,4
2165.26,4
2172.75,2
2180.27,4
2187.8,3
2195.35,2
2202.93,0
2210.52,1
2218.13,6
2225.76,1
2233.42,3
2241.09,5
2248.78,5
2256.49,3
2264.22,3
2271.97,4
2279.74,4
2287.54,3
2295.35,4
2303.18,1
2311.03,3
2318.9,4
2326.8,4
2334.71,3
2342.64,4
2350.59,2
2358.57,5
2366.56,2
2374.58,5
2382.61,7
2390.67,6
2398.74,7
2406.84,4
2414.95,5
2423.09,4
2431.25,8
2439.43,5
2447.63,4
2455.85,3
2464.09,3
2472.35,6
2480.63,2
2488.94,2
2497.26,6
2505.61,5
2513.97,5
2522.36,4
2530.77,3
2539.2,5
2547.65,3
2556.12,4
2564.62,4
2573.13,2
2581.67,1
2590.22,4
2598.8,3
2607.4,3
2616.02,6
2624.66,4
2633.33,5
2642.01,5
2650.72,5
2659.45,5
2668.2,5
2676.97,7
2685.76,4
2694.57,9
2703.41,6
2712.27,5
2721.15,3
2730.05,3
2738.97,3
2747.92,4
2756.89,8
2765.88,8
2774.89,6
2783.92,6
2792.98,4
2802.05,6
2811.15,5
2820.27,4
2829.42,7
2838.58,5
2847.77,5
2856.98,7
2866.21,5
2875.47,5
2884.75,3
2894.05,3
2903.37,11
2912.71,4
2922.08,6
2931.47,7
2940.88,11
2950.32,11
2959.77,5
2969.25,5
2978.76,6
2988.28,7
2997.83,11
3007.4,9
3017,8
3026.61,10
3036.25,9
3045.91,6
3055.6,7
3065.31,10
3075.04,11
3084.79,4
3094.57,5
3104.37,9
3114.2,12
3124.04,10
3133.91,12
3143.81,9
3153.73,8
3163.67,5
3173.63,7
3183.62,11
3193.63,12
3203.66,5
3213.72,7
3223.8,10
3233.9,7
3244.03,8
3254.18,6
3264.36,8
3274.56,11
3284.78,6
3295.03,7
3305.3,5
3315.59,9
3325.91,10
3336.25,7
3346.61,5
3357,3
3367.42,5
3377.86,5
3388.32,7
3398.8,8
3409.31,10
3419.85,8
3430.41,6
3440.99,4
3451.59,8
3462.22,8
3472.88,4
3483.56,3
3494.26,9
3504.99,7
3515.74,7
3526.52,3
3537.32,8
3548.15,5
3559,6
3569.88,10
3580.78,6
3591.7,4
3602.65,6
3613.62,13
3624.62,10
3635.65,9
3646.7,10
3657.77,7
3668.87,5
3679.99,8
3691.14,8
3702.31,8
3713.51,7
3724.73,7
3735.98,7
3747.26,7
3758.55,6
3769.88,5
3781.23,7
3792.6,4
3804,3
3815.43,3
3826.88,5
3838.35,6
3849.86,5
3861.38,6
3872.93,4
3884.51,4
3896.12,4
3907.74,4
3919.4,5
3931.08,7
3942.79,5
3954.52,11
3966.27,8
3978.06,3
3989.87,2
4001.7,5
4013.56,3
4025.45,1
4037.36,2
4049.3,0
4061.27,1
4073.26,2
4085.27,1
4097.32,1
4109.38,1
4121.48,2
4133.6,1
4145.75,1
4157.92,0
4170.12,0
4182.35,0
4194.6,0
4206.88,0
4219.19,0
4231.52,0
4243.88,0
4256.27,0
4268.68,0
4281.12,0
4293.58,0
4306.08,0
4318.59,0
4331.14,0
4343.71,0
4356.31,0
4368.94,0
4381.59,0
4394.27,0
4406.98,0
4419.71,0
4432.47,0
4445.26,0
4458.07,0
4470.92,0
4483.79,0
4496.68,0
4509.6,0
4522.56,0
4535.53,0
4548.54,0
4561.57,0
4574.63,0
4587.72,0
4600.83,0
4613.98,0
4627.15,0
4640.34,0
4653.57,0
4666.82,0
4680.1,0
4693.41,0
4706.75,0
4720.11,0
4733.5,0
4746.92,0
4760.37,0
4773.84,0
4787.34,0
4800.87,0
4814.43,0
4828.02,0
4841.63,0
4855.28,0
4868.95,0
4882.65,0
4896.37,0
4910.13,0
4923.91,0
4937.72,0
4951.56,0
4965.43,0
4979.33,0
4993.25,0
5007.21,0
5021.19,0
5035.2,0
5049.24,0
5063.31,0
5077.4,0
5091.53,0
5105.68,0
5119.86,0
5134.07,0
5148.31,0
5162.58,0
5176.88,0
5191.21,0
5205.56,0
5219.95,0
5234.36,0
5248.8,0
5263.27,0
5277.77,0
5292.3,0
5306.86,0
5321.45,0
5336.06,0
5350.71,0
5365.38,0
5380.09,0
5394.82,0
5409.58,0
5424.38,0
5439.2,0
5454.05,0
5468.93,0
5483.84,0
5498.78,0
5513.75,0
5528.75,0
5543.78,0
5558.84,0
5573.92,0
5589.04,0
5604.19,0
5619.37,0
5634.58,0
5649.81,0
5665.08,0
5680.38,0
5695.7,0
5711.06,0
5726.45,0
5741.87,0
5757.31,0
5772.79,0
5788.3,0
5803.84,0
5819.4,0
5835,0
5850.63,0
5866.29,0
5881.98,0
5897.7,0
5913.45,0
5929.23,0
5945.04,0
5960.88,0
5976.76,0
5992.66,0
6008.59,0
6024.56,0
6040.55,0
6056.58,0
6072.63,0
6088.72,0
6104.84,0
6120.99,0
6137.17,0
6153.38,0
6169.62,0
6185.89,0
6202.2,0
6218.53,0
6234.9,0
6251.3,0
6267.72,0
6284.18,0
6300.67,0
6317.2,0
6333.75,0
6350.33,0
6366.95,0
6383.6,0
6400.28,0
6416.99,0
6433.73,0
6450.5,0
6467.31,0
6484.14,0
6501.01,0
6517.91,0
6534.84,0
6551.81,0
6568.8,0
6585.83,0
6602.89,0
6619.98,0
6637.1,0
6654.26,0
6671.44,0
6688.66,0
6705.91,0
6723.19,0
6740.51,0
6757.85,0
6775.23,0
6792.64,0
6810.09,0
6827.56,0
6845.07,0
6862.61,0
6880.18,0
6897.79,0
6915.42,0
6933.09,0
6950.8,0
6968.53,0
6986.3,0
7004.1,0
7021.93,0
7039.8,0
7057.69,0
7075.62,0
7093.59,0
7111.58,0
7129.61,0
7147.67,0
7165.77,0
7183.9,0
7202.06,0
7220.25,0
7238.48,0
7256.74,0
7275.03,0
7293.35,0
7311.71,0
7330.11,0
7348.53,0
7366.99,0
7385.48,0
7404.01,0
7422.56,0
7441.16,0
7459.78,0
7478.44,0
7497.13,0
7515.86,0
7534.62,0
7553.41,0
7572.24,0
