Energy (keV),Counts
15,0
16.68,1
18.37,2
20.05,2
21.73,7
23.42,14
25.1,26
26.79,31
28.47,44
30.15,59
31.84,81
33.52,90
35.21,99
36.89,110
38.58,142
40.26,152
41.95,153
43.64,133
45.32,123
47.01,121
48.7,106
50.39,86
52.08,81
53.77,86
55.46,91
57.15,97
58.84,109
60.53,126
62.23,153
63.92,155
65.62,201
67.31,224
69.01,272
70.71,312
72.41,372
74.11,415
75.81,451
77.51,446
79.21,434
80.92,446
82.62,407
84.33,377
86.04,351
87.75,349
89.46,332
91.17,347
92.89,331
94.6,342
96.32,406
98.03,451
99.75,505
101.48,536
103.2,625
104.92,669
106.65,666
108.38,696
110.1,653
111.84,596
113.57,549
115.3,496
117.04,397
118.78,344
120.52,286
122.26,262
124,238
125.75,214
127.5,192
129.25,176
131,181
132.76,191
134.51,186
136.27,168
138.03,154
139.8,160
141.56,154
143.33,135
145.1,135
146.87,125
148.65,113
150.43,147
152.21,126
153.99,111
155.78,128
157.56,113
159.35,96
161.15,94
162.94,108
164.74,101
166.54,99
168.35,96
170.16,86
171.97,89
173.78,90
175.6,81
177.41,84
179.24,81
181.06,86
182.89,85
184.72,88
186.56,92
188.39,88
190.23,77
192.08,83
193.92,76
195.78,101
197.63,97
199.49,91
201.35,92
203.21,90
205.08,78
206.95,84
208.82,84
210.7,67
212.58,67
214.47,68
216.36,65
218.25,55
220.15,49
222.05,44
223.95,44
225.86,46
227.77,39
229.69,31
231.61,41
233.53,35
235.46,32
237.39,33
239.32,30
241.26,27
243.21,23
245.16,25
247.11,30
249.06,33
251.02,32
252.99,19
254.96,22
256.93,18
258.91,17
260.89,30
262.88,20
264.87,26
266.87,26
268.87,24
270.87,24
272.88,14
274.9,17
276.91,17
278.94,15
280.97,23
283,20
285.04,19
287.08,19
289.13,13
291.18,10
293.24,13
295.3,14
297.37,13
299.44,17
301.52,16
303.6,15
305.69,15
307.78,17
309.88,16
311.99,10
314.1,18
316.21,9
318.33,12
320.45,11
322.58,13
324.72,16
326.86,10
329.01,14
331.16,14
333.32,10
335.48,9
337.65,13
339.83,13
342.01,12
344.19,10
346.39,7
348.58,3
350.79,5
353,7
355.21,12
357.43,10
359.66,8
361.9,10
364.13,8
366.38,4
368.63,5
370.89,10
373.15,9
375.42,17
377.7,9
379.98,10
382.27,6
384.57,6
386.87,9
389.18,7
391.49,7
393.81,6
396.14,5
398.47,5
400.82,7
403.16,8
405.52,5
407.88,4
410.24,4
412.62,5
415,10
417.39,9
419.78,2
422.18,5
424.59,7
427,5
429.43,3
431.86,3
434.29,9
436.73,5
439.19,6
441.64,5
444.11,7
446.58,2
449.06,7
451.54,5
454.04,4
456.54,4
459.05,3
461.56,3
464.08,5
466.61,4
469.15,4
471.7,7
474.25,8
476.81,6
479.38,6
481.96,4
484.54,3
487.13,5
489.73,4
492.34,6
494.95,3
497.57,6
500.2,2
502.84,3
505.49,5
508.14,2
510.8,6
513.47,5
516.15,4
518.84,4
521.53,6
524.24,3
526.95,4
529.67,4
532.39,5
535.13,3
537.87,3
540.63,5
543.39,3
546.16,5
548.94,6
551.72,7
554.52,6
557.32,2
560.13,2
562.95,2
565.78,5
568.62,4
571.47,2
574.32,4
577.19,3
580.06,5
582.94,3
585.84,5
588.74,5
591.64,5
594.56,6
597.49,4
600.43,3
603.37,4
606.33,2
609.29,3
612.26,3
615.24,5
618.24,2
621.24,2
624.25,3
627.27,3
630.29,3
633.33,5
636.38,5
639.44,3
642.5,4
645.58,3
648.67,3
651.76,3
654.87,4
657.98,2
661.11,3
664.24,7
667.38,4
670.54,3
673.7,4
676.88,3
680.06,2
683.25,3
686.46,3
689.67,4
692.89,6
696.13,2
699.37,3
702.63,6
705.89,3
709.16,2
712.45,3
715.74,3
719.05,3
722.37,4
725.69,4
729.03,4
732.38,4
735.73,5
739.1,2
742.48,4
745.87,3
749.27,4
752.68,5
756.1,3
759.53,6
762.97,5
766.43,5
769.89,6
773.37,1
776.85,2
780.35,6
783.86,5
787.38,3
790.91,3
794.45,4
798,2
801.56,2
805.14,2
808.72,2
812.32,2
815.93,2
819.55,2
823.18,2
826.82,2
830.47,1
834.14,3
837.81,2
841.5,3
845.2,3
848.91,3
852.63,4
856.37,3
860.11,1
863.87,0
867.64,2
871.42,3
875.21,1
879.02,0
882.83,1
886.66,3
890.5,2
894.35,3
898.21,2
902.09,2
905.98,1
909.88,1
913.79,2
917.71,1
921.65,2
925.6,2
929.56,1
933.53,1
937.52,2
941.52,1
945.53,0
949.55,1
953.58,3
957.63,3
961.69,6
965.76,3
969.85,5
973.95,3
978.06,2
982.18,1
986.31,4
990.46,2
994.62,1
998.8,1
1002.98,3
1007.18,2
1011.4,1
1015.62,1
1019.86,2
1024.11,2
1028.38,2
1032.65,3
1036.94,2
1041.25,2
1045.56,1
1049.89,2
1054.24,2
1058.59,2
1062.96,2
1067.35,1
1071.74,0
1076.15,3
1080.58,3
1085.01,2
1089.46,2
1093.93,2
1098.4,2
1102.9,2
1107.4,2
1111.92,2
1116.45,1
1121,1
1125.56,2
1130.13,2
1134.72,2
1139.32,1
1143.93,1
1148.56,3
1153.2,1
1157.86,1
1162.53,3
1167.21,1
1171.91,0
1176.63,1
1181.35,2
1186.09,1
1190.85,1
1195.62,2
1200.4,4
1205.2,2
1210.01,2
1214.84,1
1219.68,0
1224.54,0
1229.41,0
1234.29,0
1239.19,0
1244.11,0
1249.04,0
1253.98,1
1258.94,2
1263.91,2
1268.9,3
1273.9,1
1278.92,0
1283.95,1
1289,2
1294.06,1
1299.13,1
1304.23,1
1309.33,1
1314.45,1
1319.59,0
1324.74,1
1329.91,1
1335.09,0
1340.29,1
1345.5,2
1350.73,2
1355.97,1
1361.23,0
1366.5,1
1371.79,1
1377.1,0
1382.42,0
1387.75,0
1393.1,1
1398.47,1
1403.85,1
1409.25,1
1414.67,0
1420.1,0
1425.54,0
1431,0
1436.48,1
1441.97,1
1447.48,0
1453,0
1458.54,1
1464.1,2
1469.67,1
1475.26,2
1480.86,2
1486.48,1
1492.12,0
1497.77,0
1503.44,1
1509.13,1
1514.83,2
1520.55,1
1526.28,0
1532.03,1
1537.8,1
1543.58,0
1549.38,0
1555.2,1
1561.03,1
1566.88,1
1572.74,1
1578.63,0
1584.53,1
1590.44,1
1596.37,0
1602.32,0
1608.29,0
1614.27,0
1620.27,0
1626.29,1
1632.32,2
1638.37,1
1644.44,0
1650.52,1
1656.63,1
1662.74,1
1668.88,1
1675.03,0
1681.2,0
1687.39,0
1693.6,1
1699.82,1
1706.06,0
1712.31,1
1718.59,1
1724.88,0
1731.19,0
1737.51,0
1743.86,1
1750.22,2
1756.6,1
1762.99,0
1769.41,0
1775.84,0
1782.29,1
1788.76,1
1795.24,0
1801.74,0
1808.27,0
1814.8,1
1821.36,1
1827.94,0
1834.53,0
1841.14,0
1847.77,1
1854.41,2
1861.08,0
1867.76,0
1874.46,0
1881.18,0
1887.92,0
1894.67,0
1901.45,1
1908.24,1
1915.05,0
1921.88,0
1928.73,1
1935.59,2
1942.48,1
1949.38,1
1956.3,1
1963.24,0
1970.2,0
1977.18,0
1984.18,0
1991.19,0
1998.23,0
2005.28,1
2012.35,2
2019.44,1
2026.55,0
2033.68,0
2040.82,1
2047.99,1
2055.18,1
2062.38,1
2069.6,0
2076.85,0
2084.11,0
2091.39,0
2098.69,0
2106.01,1
2113.35,1
2120.7,1
2128.08,1
2135.48,1
2142.89,1
2150.33,0
2157.78,1
2165.26,2
2172.75,1
2180.27,0
2187.8,1
2195.35,2
2202.93,1
2210.52,1
2218.13,1
2225.76,0
2233.42,0
2241.09,1
2248.78,2
2256.49,0
2264.22,1
2271.97,1
2279.74,0
2287.54,1
2295.35,2
2303.18,1
2311.03,1
2318.9,0
2326.8,0
2334.71,0
2342.64,0
2350.59,1
2358.57,1
2366.56,1
2374.58,1
2382.61,1
2390.67,2
2398.74,1
2406.84,0
2414.95,1
2423.09,2
2431.25,2
2439.43,1
2447.63,0
2455.85,1
2464.09,1
2472.35,1
2480.63,1
2488.94,1
2497.26,3
2505.61,1
2513.97,0
2522.36,0
2530.77,0
2539.2,1
2547.65,2
2556.12,2
2564.62,1
2573.13,1
2581.67,2
2590.22,2
2598.8,2
2607.4,1
2616.02,0
2624.66,0
2633.33,0
2642.01,1
2650.72,4
2659.45,2
2668.2,1
2676.97,0
2685.76,0
2694.57,0
2703.41,2
2712.27,0
2721.15,0
2730.05,0
2738.97,0
2747.92,0
2756.89,1
2765.88,2
2774.89,0
2783.92,0
2792.98,1
2802.05,2
2811.15,2
2820.27,2
2829.42,2
2838.58,1
2847.77,1
2856.98,2
2866.21,3
2875.47,1
2884.75,0
2894.05,0
2903.37,1
2912.71,2
2922.08,1
2931.47,3
2940.88,4
2950.32,1
2959.77,2
2969.25,3
2978.76,1
2988.28,3
2997.83,1
3007.4,2
3017,1
3026.61,1
3036.25,2
3045.91,2
3055.6,2
3065.31,2
3075.04,1
3084.79,0
3094.57,1
3104.37,1
3114.2,1
3124.04,1
3133.91,1
3143.81,1
3153.73,0
3163.67,1
3173.63,1
3183.62,1
3193.63,1
3203.66,1
3213.72,1
3223.8,1
3233.9,2
3244.03,1
3254.18,2
3264.36,1
3274.56,0
3284.78,0
3295.03,0
3305.3,1
3315.59,3
3325.91,2
3336.25,2
3346.61,2
3357,1
3367.42,0
3377.86,0
3388.32,1
3398.8,1
3409.31,0
3419.85,2
3430.41,2
3440.99,1
3451.59,0
3462.22,2
3472.88,2
3483.56,1
3494.26,2
3504.99,1
3515.74,1
3526.52,0
3537.32,0
3548.15,1
3559,2
3569.88,3
3580.78,1
3591.7,2
3602.65,1
3613.62,2
3624.62,2
3635.65,2
3646.7,2
3657.77,2
3668.87,1
3679.99,0
3691.14,1
3702.31,1
3713.51,1
3724.73,1
3735.98,0
3747.26,0
3758.55,1
3769.88,1
3781.23,2
3792.6,2
3804,1
3815.43,0
3826.88,1
3838.35,1
3849.86,1
3861.38,5
3872.93,3
3884.51,1
3896.12,1
3907.74,2
3919.4,1
3931.08,0
3942.79,0
3954.52,1
3966.27,2
3978.06,2
3989.87,1
4001.7,0
4013.56,0
4025.45,0
4037.36,0
4049.3,0
4061.27,0
4073.26,0
4085.27,0
4097.32,0
4109.38,0
4121.48,0
4133.6,0
4145.75,0
4157.92,0
4170.12,0
4182.35,0
4194.6,0
4206.88,0
4219.19,0
4231.52,0
4243.88,0
4256.27,0
4268.68,0
4281.12,0
4293.58,0
4306.08,0
4318.59,0
4331.14,0
4343.71,0
4356.31,0
4368.94,0
4381.59,0
4394.27,0
4406.98,0
4419.71,0
4432.47,0
4445.26,0
4458.07,0
4470.92,0
4483.79,0
4496.68,0
4509.6,0
4522.56,0
4535.53,0
4548.54,0
4561.57,0
4574.63,0
4587.72,0
4600.83,0
4613.98,0
4627.15,0
4640.34,0
4653.57,0
4666.82,0
4680.1,0
4693.41,0
4706.75,0
4720.11,0
4733.5,0
4746.92,0
4760.37,0
4773.84,0
4787.34,0
4800.87,0
4814.43,0
4828.02,0
4841.63,0
4855.28,0
4868.95,0
4882.65,0
4896.37,0
4910.13,0
4923.91,0
4937.72,0
4951.56,0
4965.43,0
4979.33,0
4993.25,0
5007.21,0
5021.19,0
5035.2,0
5049.24,0
5063.31,0
5077.4,0
5091.53,0
5105.68,0
5119.86,0
5134.07,0
5148.31,0
5162.58,0
5176.88,0
5191.21,0
5205.56,0
5219.95,0
5234.36,0
5248.8,0
5263.27,0
5277.77,0
5292.3,0
5306.86,0
5321.45,0
5336.06,0
5350.71,0
5365.38,0
5380.09,0
5394.82,0
5409.58,0
5424.38,0
5439.2,0
5454.05,0
5468.93,0
5483.84,0
5498.78,0
5513.75,0
5528.75,0
5543.78,0
5558.84,0
5573.92,0
5589.04,0
5604.19,0
5619.37,0
5634.58,0
5649.81,0
5665.08,0
5680.38,0
5695.7,0
5711.06,0
5726.45,0
5741.87,0
5757.31,0
5772.79,0
5788.3,0
5803.84,0
5819.4,0
5835,0
5850.63,0
5866.29,0
5881.98,0
5897.7,0
5913.45,0
5929.23,0
5945.04,0
5960.88,0
5976.76,0
5992.66,0
6008.59,0
6024.56,0
6040.55,0
6056.58,0
6072.63,0
6088.72,0
6104.84,0
6120.99,0
6137.17,0
6153.38,0
6169.62,0
6185.89,0
6202.2,0
6218.53,0
6234.9,0
6251.3,0
6267.72,0
6284.18,0
6300.67,0
6317.2,0
6333.75,0
6350.33,0
6366.95,0
6383.6,0
6400.28,0
6416.99,0
6433.73,0
6450.5,0
6467.31,0
6484.14,0
6501.01,0
6517.91,0
6534.84,0
6551.81,0
6568.8,0
6585.83,0
6602.89,0
6619.98,0
6637.1,0
6654.26,0
6671.44,0
6688.66,0
6705.91,0
6723.19,0
6740.51,0
6757.85,0
6775.23,0
6792.64,0
6810.09,0
6827.56,0
6845.07,0
6862.61,0
6880.18,0
6897.79,0
6915.42,0
6933.09,0
6950.8,0
6968.53,0
6986.3,0
7004.1,0
7021.93,0
7039.8,0
7057.69,0
7075.62,0
7093.59,0
7111.58,0
7129.61,0
7147.67,0
7165.77,0
7183.9,0
7202.06,0
7220.25,0
7238.48,0
7256.74,0
7275.03,0
7293.35,0
7311.71,0
7330.11,0
7348.53,0
7366.99,0
7385.48,0
7404.01,0
7422.56,0
7441.16,0
7459.78,0
7478.44,0
7497.13,0
7515.86,0
7534.62,0
7553.41,0
7572.24,0
